File: raman_enhancement_factor/Renata_Raman_12_12_2025/Oil_BHT_0_08Au_sub.txt
100.582	411
115.981	345.5
131.333	265
146.637	238
161.896	190
177.107	158
192.272	138
207.39	133
222.462	106.5
237.486	128
252.465	155
267.398	103
282.283	64
297.123	71
311.917	57
326.665	51
341.367	55
356.023	39
370.633	56
385.198	37
399.717	31
414.191	29
428.619	25
443.001	-3
457.339	24
471.631	31
485.877	10.5
500.079	8
514.236	18
528.348	11.5
542.414	4.5
556.436	13.5
570.414	5.5
584.347	0.5
598.234	17
612.078	2.5
625.877	5
639.632	-4
653.342	11
667.009	10
680.631	-11.5
694.21	22.5
707.744	9.5
721.234	-8
734.681	9
748.083	-3.5
761.443	-2
774.758	-2
788.03	7
801.259	13.5
814.444	3
827.586	29.5
840.685	46
853.74	26.5
866.753	31
879.722	36
892.649	17.5
905.533	12
918.374	-2
931.173	19.5
943.928	19
956.641	7
969.312	23
981.94	7
994.527	-7
1007.07	17.5
1019.57	20.5
1032.03	1
1044.45	-1
1056.83	18.5
1069.16	24
1081.45	9
1093.7	7
1105.91	14
1118.08	-3
1130.2	-5.5
1142.29	10.5
1154.33	-14.2804
1166.33	-9.91237
1178.3	-3.71469
1190.22	-0.794979
1202.09	-15.4793
1213.93	-8.87175
1225.73	2.47619
1237.49	13.8391
1249.2	26.2702
1260.79	44
1272.85	41.5
1284.88	17
1296.88	39
1308.84	27
1320.77	18
1332.66	16.5
1344.51	-3
1356.33	-3.5
1368.12	-6
1379.86	-11
1391.58	-13
1403.26	-14
1414.9	-13.5
1426.51	4.5
1438.09	63
1449.63	26
1461.13	15
1472.6	-5
1484.03	-20
1495.43	-28
1506.8	-43
1518.13	-34.5
1529.43	-23
1540.69	-39
1551.91	-29.5
1563.11	-22
1574.26	-24
1585.39	-35
1596.48	-20
1607.53	-35
1618.55	-35
1629.54	-24.5
1640.49	-10
1651.41	23.5
1662.29	7
1673.14	-26.5
1683.95	-37
1694.74	-25
1705.48	-16
1716.2	-25
1726.88	-53
1737.52	-25.5
1748.13	-21
1758.71	-32
1769.25	-17.5
1779.76	-34.5
1790.24	-19
1800.68	-28
1811.09	-27
1821.47	-29
1831.81	-30
1842.12	-29
1852.4	-39
1862.64	-14
1872.85	-35
1883.02	-29
1893.17	-39
1903.28	-33
1913.35	-30
1923.4	-35
1933.41	-37.5
1943.38	-46
1953.33	-25
1963.24	-35.5
1973.12	-36
1982.96	-29
1992.78	-32
2002.56	-31.5594
2012.3	-26.8605
2022.02	-18.0594
2031.7	-22.4589
2041.35	-32.1515
2050.97	-25.7157
2060.55	-20.5392
2070.1	-17.0615
2079.62	-24.0498
2088.81	-8.5
2098.7	-7
2108.56	-26
2118.4	-9
2128.2	-27
2137.98	-24
2147.73	-15
2157.45	-9
2167.15	-54
2176.81	-23
2186.45	-22.5
2196.06	-16
2205.64	-25.5
2215.2	-28.5
2224.72	-23.5
2234.22	-41
2243.69	-48
2253.13	-25.5
2262.55	-39
2271.93	-36
2281.29	-32.5
2290.62	-43
2299.93	-27.5
2309.2	-33.5
2318.45	-21
2327.67	-29
2336.86	-48
2346.03	-34
2355.17	-33.5
2364.28	-53
2373.36	-36
2382.41	-36
2391.44	-35
2400.44	-38.5
2409.41	-36
2418.35	-31.5
2427.27	-40
2436.16	-33
2445.02	-48
2453.86	-39
2462.66	-47
2471.44	-24.5
2480.19	-38.5
2488.92	-47
2497.62	-34
2506.29	-41
2514.93	-35
2523.55	-25
2532.14	-37.5
2540.7	-30
2549.23	-29.5
2557.74	-24
2566.22	-40
2574.67	-26
2583.1	-42
2591.5	-27
2599.87	-36.5
2608.21	-32.5
2616.53	-36
2624.82	-37
2633.08	-44
2641.32	-33.5
2649.53	-37
2657.71	-40
2665.87	-34
2674	-21
2682.1	-19.5
2690.18	-20.5
2698.23	-24.8255
2706.25	-33.5126
2714.25	-37.2877
2722.22	-29.8967
2730.16	-28.936
2738.07	-22.1974
2745.96	-19.4551
2753.83	-22.8784
2761.66	-14.2134
2769.81	-18
2778.03	-16.5
2786.22	-26
2794.39	-31
2802.54	-34.5
2810.66	-18.5
2818.76	-24.5
2826.84	-25
2834.9	-17
2842.93	-26
2850.94	-9.5
2858.92	0
2866.89	-20
2874.83	-26
2882.75	-27
2890.64	-16.5
2898.51	-22
2906.36	-20
2914.19	-19.5
2921.99	-16.5
2929.77	-21
2937.53	-20
2945.26	-22.5
2952.98	-28
2960.66	-27.5
2968.33	-44
2975.97	-25
2983.59	-41.5
2991.19	-29
2998.77	-31.5
3006.32	-43
3013.85	-47
3021.35	-26.5
3028.84	-18.5
3036.3	-32.5
3043.73	-24.5
3051.15	-30
3058.54	-30.5
3065.91	-37.5
3073.26	-25
3080.58	-51
3087.88	-41
3095.16	-45
3102.42	-32
3109.65	-38.5
3116.86	-30
3124.05	-43
3131.22	-42
3138.36	-32
3145.48	-26.5
3152.58	-37.5
3159.65	-40.5
3166.7	-22.5
3173.73	-38
3180.74	-35
3187.72	-40
3194.69	-31
3199.89	-38.5