File: raman_enhancement_factor/Renata_Raman_12_12_2025/Oil_BHT_0_008Au_sub_Aged_50Xlens_785_1200grating_25%_acc3_acq3s_AE50000_1.txt
100.582	451
115.981	375
131.333	322
146.637	283.5
161.896	214
177.107	164
192.272	151
207.39	137
222.462	136
237.486	125
252.465	212
267.398	126
282.283	119.5
297.123	106
311.917	87
326.665	64
341.367	76.5
356.023	67.5
370.633	62.5
385.198	63
399.717	57.5
414.191	39
428.619	33
443.001	45.5
457.339	20
471.631	18
485.877	31
500.079	23
514.236	8
528.348	16.5
542.414	18.5
556.436	0
570.414	3.5
584.347	13
598.234	8
612.078	2
625.877	12.5
639.632	17
653.342	-14
667.009	-6
680.631	11
694.21	5.5
707.744	-20
721.234	18
734.681	14.5
748.083	-5
761.443	-7
774.758	8.5
788.03	-4.5
801.259	-15
814.444	26
827.586	31
840.685	37
853.74	11
866.753	38
879.722	20
892.649	1
905.533	39.5
918.374	18
931.173	17
943.928	22
956.641	25
969.312	25
981.94	12
994.527	10
1007.07	-4
1019.57	-10.5
1032.03	4
1044.45	8.5
1056.83	17.5
1069.16	29.5
1081.45	32
1093.7	11
1105.91	-5
1118.08	10
1130.2	1
1142.29	-7
1154.33	1.19187
1166.33	-8.94396
1178.3	4.11395
1190.22	-6.67072
1202.09	6.30279
1213.93	-1.80755
1225.73	8.10625
1237.49	9.45375
1249.2	21.0457
1260.79	44
1272.85	37.5
1284.88	25
1296.88	49
1308.84	38.5
1320.77	21.5
1332.66	0
1344.51	-7
1356.33	-7
1368.12	-4.5
1379.86	-2
1391.58	-13
1403.26	-0.5
1414.9	10
1426.51	5.5
1438.09	71
1449.63	34.5
1461.13	16
1472.6	1
1484.03	-13
1495.43	-12.5
1506.8	-33
1518.13	-27.5
1529.43	-10
1540.69	-31
1551.91	-22
1563.11	-19
1574.26	-20
1585.39	-27
1596.48	-27.5
1607.53	-19.5
1618.55	-30
1629.54	-25
1640.49	-18.5
1651.41	23
1662.29	15
1673.14	-18
1683.95	-21
1694.74	-33
1705.48	-25
1716.2	-31
1726.88	-33
1737.52	-23.5
1748.13	-13
1758.71	-26
1769.25	-40
1779.76	-31.5
1790.24	-28.5
1800.68	-30.5
1811.09	-25
1821.47	-26
1831.81	-17
1842.12	-37
1852.4	-30.5
1862.64	-20
1872.85	-30.5
1883.02	-22
1893.17	-25
1903.28	-28
1913.35	-33
1923.4	-25.5
1933.41	-27
1943.38	-34.5
1953.33	-39
1963.24	-25.5
1973.12	-34.5
1982.96	-43
1992.78	-24
2002.56	-31.2928
2012.3	-32.6929
2022.02	-22.7627
2031.7	-31.0053
2041.35	-21.9165
2050.97	-24.1644
2060.55	-20.7122
2070.1	-18.1923
2079.62	-26.1773
2088.81	-24.5
2098.7	-17
2108.56	-40
2118.4	-18.5
2128.2	-20
2137.98	-17.5
2147.73	-16
2157.45	-5
2167.15	-26
2176.81	-25
2186.45	-30
2196.06	-45
2205.64	-29
2215.2	-24.5
2224.72	-29.5
2234.22	-37
2243.69	-39
2253.13	-25.5
2262.55	-29.5
2271.93	-30
2281.29	-18.5
2290.62	-35.5
2299.93	-39
2309.2	-30.5
2318.45	-38
2327.67	-28
2336.86	-38
2346.03	-39
2355.17	-40
2364.28	-38
2373.36	-44
2382.41	-35
2391.44	-36.5
2400.44	-30.5
2409.41	-25.5
2418.35	-27
2427.27	-59
2436.16	-45.5
2445.02	-28
2453.86	-39.5
2462.66	-36
2471.44	-22.5
2480.19	-45
2488.92	-42
2497.62	-36
2506.29	-33.5
2514.93	-53
2523.55	-24.5
2532.14	-39
2540.7	-39.5
2549.23	-54
2557.74	-29.5
2566.22	-32
2574.67	-32
2583.1	-33
2591.5	-15
2599.87	-44
2608.21	-32.5
2616.53	-31
2624.82	-48
2633.08	-32
2641.32	-38
2649.53	-30
2657.71	-60
2665.87	-26.5
2674	-33
2682.1	-32
2690.18	-44.5
2698.23	-26.7729
2706.25	-21.4415
2714.25	-22.7331
2722.22	-23.3584
2730.16	-18.7954
2738.07	-37.9008
2745.96	-32.7688
2753.83	-23.8941
2761.66	-23.3479
2769.81	-19
2778.03	-18
2786.22	-29.5
2794.39	-24
2802.54	-20
2810.66	-17
2818.76	-20.5
2826.84	-4
2834.9	-28
2842.93	-19.5
2850.94	-2
2858.92	-2.5
2866.89	-22.5
2874.83	-26
2882.75	-26
2890.64	-33
2898.51	-27
2906.36	-8
2914.19	-39
2921.99	-26.5
2929.77	-22
2937.53	-21
2945.26	-27.5
2952.98	-28.5
2960.66	-25
2968.33	-47.5
2975.97	-49
2983.59	-32.5
2991.19	-38
2998.77	-41
3006.32	-26.5
3013.85	-20
3021.35	-33
3028.84	-34
3036.3	-30
3043.73	-48
3051.15	-37
3058.54	-31
3065.91	-24.5
3073.26	-38
3080.58	-30.5
3087.88	-20
3095.16	-42
3102.42	-45
3109.65	-28
3116.86	-48
3124.05	-49.5
3131.22	-30
3138.36	-40
3145.48	-36
3152.58	-37.5
3159.65	-29
3166.7	-41
3173.73	-46
3180.74	-27.5
3187.72	-28.5
3194.69	-47
3199.89	-31