File: raman_enhancement_factor/Renata_Raman_12_12_2025/Oil_BHT_0_08Au_sub_Aged_50Xlens_785_1200grating_25%_acc3_acq3s_AE50000.txt
100.582	568
115.981	468.5
131.333	398.5
146.637	307
161.896	247
177.107	232.5
192.272	182
207.39	176.5
222.462	167
237.486	162
252.465	278
267.398	143
282.283	139
297.123	124.5
311.917	93
326.665	102
341.367	91.5
356.023	68.5
370.633	72
385.198	72.5
399.717	51.5
414.191	48.5
428.619	53
443.001	54.5
457.339	32
471.631	41.5
485.877	50
500.079	17.5
514.236	36
528.348	27.5
542.414	-2
556.436	18
570.414	26
584.347	24
598.234	12.5
612.078	24.5
625.877	14
639.632	1
653.342	7
667.009	7
680.631	9
694.21	1.5
707.744	24
721.234	38
734.681	21.5
748.083	7.5
761.443	19
774.758	11
788.03	-18
801.259	11
814.444	28.5
827.586	31
840.685	58
853.74	53.5
866.753	69.5
879.722	45
892.649	40
905.533	48
918.374	36.5
931.173	30
943.928	47
956.641	31
969.312	28
981.94	26.5
994.527	19
1007.07	11
1019.57	19.5
1032.03	21.5
1044.45	19
1056.83	22
1069.16	52
1081.45	37
1093.7	23
1105.91	30
1118.08	19
1130.2	-4
1142.29	5.5
1154.33	2.29094
1166.33	-6.34985
1178.3	-0.846757
1190.22	-4.85257
1202.09	11.1713
1213.93	3.16635
1225.73	7.52843
1237.49	24.3216
1249.2	42.7179
1260.79	65
1272.85	65.5
1284.88	34.5
1296.88	80
1308.84	51.5
1320.77	13
1332.66	18.5
1344.51	17
1356.33	-10
1368.12	7
1379.86	-4
1391.58	5.5
1403.26	-16.5
1414.9	14.5
1426.51	27.5
1438.09	92
1449.63	38
1461.13	30
1472.6	9
1484.03	-14.5
1495.43	-20
1506.8	-22
1518.13	-16.5
1529.43	-19
1540.69	-19.5
1551.91	-25
1563.11	-35.5
1574.26	-16.5
1585.39	-18
1596.48	-28.5
1607.53	-20
1618.55	-16
1629.54	-24.5
1640.49	-9.5
1651.41	38
1662.29	31.5
1673.14	-19
1683.95	-44
1694.74	-18
1705.48	-37
1716.2	-38.5
1726.88	-17.5
1737.52	-19
1748.13	-8.5
1758.71	-20
1769.25	-16.5
1779.76	-47
1790.24	-28
1800.68	-19
1811.09	-30
1821.47	-29
1831.81	-22
1842.12	-37
1852.4	-24.5
1862.64	-35
1872.85	-27
1883.02	-35.5
1893.17	-43
1903.28	-30
1913.35	-16.5
1923.4	-27
1933.41	-30
1943.38	-31
1953.33	-37.5
1963.24	-19
1973.12	-16.5
1982.96	-30
1992.78	-34
2002.56	-35.5051
2012.3	-23.8566
2022.02	-33.6906
2031.7	-39.1852
2041.35	-17.4703
2050.97	-37.2365
2060.55	-28.6569
2070.1	-29.8611
2079.62	-7.10018
2088.81	-3
2098.7	-19
2108.56	-19
2118.4	-27
2128.2	-15
2137.98	-37
2147.73	-29
2157.45	-14
2167.15	-21
2176.81	-44
2186.45	-23
2196.06	-20
2205.64	-24.5
2215.2	-45.5
2224.72	-22.5
2234.22	-43
2243.69	-38
2253.13	-21
2262.55	-31.5
2271.93	-29.5
2281.29	-36.5
2290.62	-28
2299.93	-35
2309.2	-31
2318.45	-22.5
2327.67	-30.5
2336.86	-38.5
2346.03	-32
2355.17	-50
2364.28	-37
2373.36	-37
2382.41	-30
2391.44	-41.5
2400.44	-29.5
2409.41	-14.5
2418.35	-26
2427.27	-42.5
2436.16	-38
2445.02	-45
2453.86	-47
2462.66	-32
2471.44	-33.5
2480.19	-37
2488.92	-49
2497.62	-30
2506.29	-28
2514.93	-39
2523.55	-44
2532.14	-17
2540.7	-41
2549.23	-42
2557.74	-32.5
2566.22	-29
2574.67	-46.5
2583.1	-33
2591.5	-27
2599.87	-37.5
2608.21	-48
2616.53	-38.5
2624.82	-44
2633.08	-38
2641.32	-27.5
2649.53	-38
2657.71	-32
2665.87	-35.5
2674	-19
2682.1	-43
2690.18	-36
2698.23	-25.706
2706.25	-30.256
2714.25	-33.7517
2722.22	-20.819
2730.16	-26.1307
2738.07	-22.3453
2745.96	-31.7176
2753.83	-19.6909
2761.66	-25.869
2769.81	-11
2778.03	-24
2786.22	-23
2794.39	-17.5
2802.54	-15
2810.66	-25.5
2818.76	-21
2826.84	-25
2834.9	-17
2842.93	-24.5
2850.94	-7.5
2858.92	-19
2866.89	6.5
2874.83	-15
2882.75	-11
2890.64	-21.5
2898.51	-28
2906.36	-7
2914.19	-5
2921.99	-24.5
2929.77	-11
2937.53	-20
2945.26	-33
2952.98	-28
2960.66	-30
2968.33	-30.5
2975.97	-43.5
2983.59	-36
2991.19	-53
2998.77	-31.5
3006.32	-28
3013.85	-47
3021.35	-24.5
3028.84	-38.5
3036.3	-30.5
3043.73	-21.5
3051.15	-33
3058.54	-32
3065.91	-22
3073.26	-26.5
3080.58	-34
3087.88	-34
3095.16	-37
3102.42	-38
3109.65	-36
3116.86	-37.5
3124.05	-45.5
3131.22	-35.5
3138.36	-39
3145.48	-27
3152.58	-38
3159.65	-33
3166.7	-21
3173.73	-38.5
3180.74	-23
3187.72	-35
3194.69	-33
3199.89	-42