File: raman_enhancement_factor/Renata_Raman_12_12_2025/Oil_BHT_1%_50Xlens_785_1200grating_25%_acc3_acq3s_AE50000_1.txt
100.582	490
115.981	402.5
131.333	351
146.637	293
161.896	246
177.107	190
192.272	174
207.39	178
222.462	158.5
237.486	151
252.465	199
267.398	131
282.283	127
297.123	102
311.917	98.5
326.665	81
341.367	79.5
356.023	75
370.633	75
385.198	44
399.717	58.5
414.191	66
428.619	54.5
443.001	53
457.339	51
471.631	42
485.877	33.5
500.079	38
514.236	45.5
528.348	36.5
542.414	27
556.436	22
570.414	26.5
584.347	7
598.234	15.5
612.078	30
625.877	14
639.632	2.5
653.342	0.5
667.009	25
680.631	21
694.21	21
707.744	33.5
721.234	13
734.681	18.5
748.083	21
761.443	17
774.758	10
788.03	18
801.259	22.5
814.444	15
827.586	27
840.685	57
853.74	45
866.753	46
879.722	40.5
892.649	38.5
905.533	39
918.374	33.5
931.173	27.5
943.928	39.5
956.641	32
969.312	36.5
981.94	37.5
994.527	12
1007.07	12
1019.57	13.5
1032.03	15
1044.45	-11
1056.83	26
1069.16	50
1081.45	29
1093.7	20
1105.91	41
1118.08	24.5
1130.2	-4.5
1142.29	10.5
1154.33	-21.8962
1166.33	-8.9928
1178.3	11.958
1190.22	13.697
1202.09	1.2481
1213.93	17.2517
1225.73	15.4844
1237.49	24.4273
1249.2	50.8901
1260.79	82.5
1272.85	63.5
1284.88	43.5
1296.88	97.5
1308.84	55
1320.77	23
1332.66	36
1344.51	51
1356.33	27.5
1368.12	27.5
1379.86	38
1391.58	10.5
1403.26	11.5
1414.9	28
1426.51	45
1438.09	69
1449.63	62
1461.13	52
1472.6	17
1484.03	-3
1495.43	15
1506.8	3
1518.13	-16
1529.43	-3
1540.69	3
1551.91	-15
1563.11	-21
1574.26	-1
1585.39	-5
1596.48	-18
1607.53	-15.5
1618.55	4
1629.54	-21
1640.49	-7.5
1651.41	67.5
1662.29	23.5
1673.14	-6
1683.95	2.5
1694.74	-14
1705.48	-23
1716.2	-23.5
1726.88	-5
1737.52	-10.5
1748.13	-15
1758.71	-18.5
1769.25	-18.5
1779.76	-29
1790.24	-10.5
1800.68	-30
1811.09	-27
1821.47	-21
1831.81	-22.5
1842.12	-25
1852.4	-23
1862.64	-11
1872.85	-17
1883.02	-33.5
1893.17	-23
1903.28	-5.5
1913.35	-29
1923.4	-33
1933.41	-11.5
1943.38	-14
1953.33	-35
1963.24	-13.5
1973.12	-6.5
1982.96	-23.5
1992.78	-29.5
2002.56	-14.1467
2012.3	-22.4756
2022.02	-36.9551
2031.7	-34.1123
2041.35	-27.7097
2050.97	-26.2547
2060.55	-14.6326
2070.1	-13.2098
2079.62	-9.80615
2088.81	-6.5
2098.7	-23.5
2108.56	-7.5
2118.4	-10
2128.2	-46
2137.98	-30
2147.73	-4
2157.45	-23
2167.15	-42
2176.81	-12
2186.45	-28
2196.06	-37
2205.64	-17.5
2215.2	-19.5
2224.72	-25
2234.22	-38.5
2243.69	-19
2253.13	-43
2262.55	-46
2271.93	-26
2281.29	-17.5
2290.62	-45
2299.93	-36.5
2309.2	-14.5
2318.45	-50
2327.67	-40
2336.86	-30
2346.03	-23.5
2355.17	-37.5
2364.28	-32.5
2373.36	-22.5
2382.41	-30.5
2391.44	-38.5
2400.44	-12
2409.41	-32
2418.35	-30
2427.27	-22
2436.16	-22
2445.02	-50
2453.86	-30.5
2462.66	-23.5
2471.44	-38
2480.19	-36.5
2488.92	-25
2497.62	-28
2506.29	-27
2514.93	-36.5
2523.55	-20.5
2532.14	-35.5
2540.7	-37
2549.23	-21.5
2557.74	-24
2566.22	-37
2574.67	-28.5
2583.1	-21.5
2591.5	-36.5
2599.87	-33.5
2608.21	-20
2616.53	-32
2624.82	-44.5
2633.08	-25
2641.32	-45
2649.53	-48
2657.71	-32
2665.87	-7
2674	-34.5
2682.1	-36.5
2690.18	-6
2698.23	-31.3336
2706.25	-30.2195
2714.25	-32.1516
2722.22	-14.6282
2730.16	-25.3889
2738.07	-25.3676
2745.96	-17.7977
2753.83	-20.8612
2761.66	-20.239
2769.81	-16
2778.03	-16
2786.22	-7
2794.39	-11.5
2802.54	-5.5
2810.66	3
2818.76	-33
2826.84	-18.5
2834.9	-13.5
2842.93	-25
2850.94	-8.5
2858.92	0.5
2866.89	-14.5
2874.83	-22
2882.75	-10
2890.64	-11
2898.51	-23
2906.36	-33
2914.19	-11
2921.99	-29
2929.77	-31.5
2937.53	-23.5
2945.26	-37
2952.98	-31
2960.66	-25.5
2968.33	-36
2975.97	-54
2983.59	-31
2991.19	-21
2998.77	-33
3006.32	-33.5
3013.85	-22.5
3021.35	-47
3028.84	-50
3036.3	-32
3043.73	-26
3051.15	-34.5
3058.54	-41.5
3065.91	-25
3073.26	-33.5
3080.58	-55
3087.88	-29
3095.16	-27
3102.42	-33
3109.65	-36.5
3116.86	-20
3124.05	-33
3131.22	-42
3138.36	-32
3145.48	-32
3152.58	-33.5
3159.65	-38.5
3166.7	-30
3173.73	-44
3180.74	-40.5
3187.72	-28
3194.69	-26
3199.89	-33.5