File: raman_enhancement_factor/Renata_Raman_12_12_2025/Oil_50Xlens_785_1200grating_25%_acc3_acq3s_AE50000_1.txt
100.582	425.5
115.981	347
131.333	324.5
146.637	261
161.896	203.5
177.107	182
192.272	153
207.39	139
222.462	131
237.486	141
252.465	168
267.398	107
282.283	97.5
297.123	84.5
311.917	79
326.665	76
341.367	67.5
356.023	55
370.633	54
385.198	70
399.717	57.5
414.191	42.5
428.619	47
443.001	51.5
457.339	24
471.631	36.5
485.877	19.5
500.079	16
514.236	31
528.348	34.5
542.414	19.5
556.436	2
570.414	13.5
584.347	12
598.234	11
612.078	13
625.877	20
639.632	10
653.342	-2
667.009	16
680.631	6
694.21	20
707.744	9.5
721.234	1
734.681	6.5
748.083	7.5
761.443	13
774.758	7.5
788.03	4
801.259	17
814.444	25
827.586	23
840.685	29.5
853.74	35.5
866.753	28
879.722	25
892.649	20
905.533	31
918.374	12
931.173	24
943.928	17
956.641	20
969.312	20.5
981.94	12
994.527	12.5
1007.07	9.5
1019.57	13.5
1032.03	4
1044.45	15
1056.83	7
1069.16	29
1081.45	23.5
1093.7	17
1105.91	22.5
1118.08	7.5
1130.2	-7
1142.29	1
1154.33	-3.39088
1166.33	5.69323
1178.3	1.40329
1190.22	1.51386
1202.09	-1.02551
1213.93	-6.16573
1225.73	12.6958
1237.49	24.4231
1249.2	32.6608
1260.79	41
1272.85	39
1284.88	32
1296.88	41
1308.84	41.5
1320.77	32
1332.66	1
1344.51	8
1356.33	0
1368.12	0
1379.86	4.5
1391.58	13
1403.26	5
1414.9	14
1426.51	20.5
1438.09	51
1449.63	42.5
1461.13	29
1472.6	9
1484.03	-8
1495.43	-0.5
1506.8	-6
1518.13	-15
1529.43	-9.5
1540.69	-14
1551.91	-5
1563.11	-21
1574.26	-14.5
1585.39	-27
1596.48	-27
1607.53	-26
1618.55	-24
1629.54	-6
1640.49	-7
1651.41	12
1662.29	10
1673.14	-39
1683.95	-25
1694.74	-22
1705.48	-22
1716.2	-23
1726.88	-31.5
1737.52	-4
1748.13	-29
1758.71	-17.5
1769.25	-20.5
1779.76	-19
1790.24	-31
1800.68	-25
1811.09	-23
1821.47	-34
1831.81	-19.5
1842.12	-31.5
1852.4	-13
1862.64	-23
1872.85	-32
1883.02	-24
1893.17	-13
1903.28	-25
1913.35	-22
1923.4	-21
1933.41	-6
1943.38	-31
1953.33	-35
1963.24	-26
1973.12	-34.5
1982.96	-21
1992.78	-19
2002.56	-29.2092
2012.3	-27.5766
2022.02	-41.0903
2031.7	-30.6984
2041.35	-24.5701
2050.97	-25.9313
2060.55	-17.8971
2070.1	-13.8851
2079.62	-14.546
2088.81	-12.5
2098.7	-10
2108.56	-15
2118.4	-5
2128.2	-20.5
2137.98	-26
2147.73	-6
2157.45	-25
2167.15	-21
2176.81	-17
2186.45	-25
2196.06	-47
2205.64	-46
2215.2	-26
2224.72	-19
2234.22	-35
2243.69	-29
2253.13	-28.5
2262.55	-36
2271.93	-45.5
2281.29	-38.5
2290.62	-46
2299.93	-51
2309.2	-29
2318.45	-32
2327.67	-43
2336.86	-31.5
2346.03	-33
2355.17	-43
2364.28	-33
2373.36	-32
2382.41	-35.5
2391.44	-37
2400.44	-34.5
2409.41	-20
2418.35	-37
2427.27	-31
2436.16	-44
2445.02	-30.5
2453.86	-28
2462.66	-38
2471.44	-27.5
2480.19	-39
2488.92	-39.5
2497.62	-36.5
2506.29	-42
2514.93	-33
2523.55	-22.5
2532.14	-35
2540.7	-57
2549.23	-26.5
2557.74	-31.5
2566.22	-43
2574.67	-18.5
2583.1	-32.5
2591.5	-39
2599.87	-61
2608.21	-27.5
2616.53	-30
2624.82	-33.5
2633.08	-24
2641.32	-31
2649.53	-34
2657.71	-31
2665.87	-20.5
2674	-38
2682.1	-26
2690.18	-28
2698.23	-24.4545
2706.25	-37.9221
2714.25	-27.1977
2722.22	-29.3997
2730.16	-28.4401
2738.07	-28.0972
2745.96	-25.5369
2753.83	-21.8652
2761.66	-27.4239
2769.81	-21
2778.03	-19.5
2786.22	-2
2794.39	-25
2802.54	-25
2810.66	-31
2818.76	-19
2826.84	-15.5
2834.9	-16.5
2842.93	-21
2850.94	-24.5
2858.92	-17
2866.89	-15
2874.83	-31
2882.75	-22
2890.64	-21.5
2898.51	-40
2906.36	-28
2914.19	-24
2921.99	-17.5
2929.77	-13.5
2937.53	-32.5
2945.26	-30
2952.98	-49
2960.66	-38
2968.33	-33
2975.97	-29
2983.59	-35
2991.19	-37.5
2998.77	-22
3006.32	-27
3013.85	-38
3021.35	-38.5
3028.84	-45
3036.3	-30.5
3043.73	-36.5
3051.15	-26
3058.54	-44
3065.91	-27.5
3073.26	-42
3080.58	-30
3087.88	-38
3095.16	-45
3102.42	-35.5
3109.65	-46
3116.86	-36.5
3124.05	-26
3131.22	-39
3138.36	-42
3145.48	-38
3152.58	-34
3159.65	-35.5
3166.7	-26
3173.73	-30
3180.74	-38
3187.72	-37.5
3194.69	-41
3199.89	-40