File: raman_enhancement_factor/Renata_Raman_12_12_2025/Oil_BHT_0_008Au_sub.txt
100.582	560
115.981	435
131.333	397.5
146.637	308.5
161.896	259.5
177.107	218.5
192.272	180
207.39	167
222.462	185.5
237.486	143.5
252.465	164.5
267.398	147
282.283	115
297.123	105.5
311.917	88.5
326.665	105
341.367	56.5
356.023	63
370.633	67
385.198	73.5
399.717	70
414.191	57
428.619	52.5
443.001	42.5
457.339	45.5
471.631	38
485.877	27
500.079	25
514.236	18
528.348	13
542.414	16
556.436	24
570.414	20
584.347	15
598.234	12.5
612.078	30
625.877	14.5
639.632	16
653.342	0
667.009	7
680.631	-10
694.21	3
707.744	20
721.234	30
734.681	18
748.083	26
761.443	15
774.758	4
788.03	17
801.259	8
814.444	21
827.586	48.5
840.685	72
853.74	58.5
866.753	71
879.722	43
892.649	59
905.533	32
918.374	40.5
931.173	35
943.928	45.5
956.641	31.5
969.312	41
981.94	26
994.527	10
1007.07	20
1019.57	16
1032.03	12.5
1044.45	27
1056.83	35
1069.16	58
1081.45	52
1093.7	32
1105.91	27.5
1118.08	29.5
1130.2	-8
1142.29	17.5
1154.33	-5.27693
1166.33	-12.6164
1178.3	7.97859
1190.22	-0.437413
1202.09	6.74548
1213.93	13.0745
1225.73	15.9795
1237.49	31.3831
1249.2	58.0178
1260.79	78
1272.85	61
1284.88	35
1296.88	80.5
1308.84	52
1320.77	27
1332.66	16.5
1344.51	14
1356.33	-2
1368.12	7
1379.86	6
1391.58	-8.5
1403.26	-12.5
1414.9	10.5
1426.51	24
1438.09	88
1449.63	60.5
1461.13	51
1472.6	-2
1484.03	-12
1495.43	-16.5
1506.8	-17.5
1518.13	-21.5
1529.43	-24
1540.69	-23.5
1551.91	-20
1563.11	-21
1574.26	-33
1585.39	-26
1596.48	-37
1607.53	-15
1618.55	-9
1629.54	-18
1640.49	-13.5
1651.41	51.5
1662.29	19.5
1673.14	-21
1683.95	-26
1694.74	-24.5
1705.48	-23
1716.2	-31.5
1726.88	-30
1737.52	-24
1748.13	-25
1758.71	-2.5
1769.25	-19
1779.76	-36.5
1790.24	-34
1800.68	-21.5
1811.09	-33
1821.47	-29.5
1831.81	-29
1842.12	-29
1852.4	-41
1862.64	-22.5
1872.85	-17
1883.02	-46
1893.17	-33.5
1903.28	-23
1913.35	-35
1923.4	-20
1933.41	-28
1943.38	-40
1953.33	-41
1963.24	-23
1973.12	-31
1982.96	-22.5
1992.78	-35
2002.56	-30.5164
2012.3	-29.1878
2022.02	-47.1058
2031.7	-23.2051
2041.35	-21.239
2050.97	-28.0125
2060.55	-8.64316
2070.1	-20.315
2079.62	-16.6514
2088.81	-32
2098.7	-9
2108.56	3
2118.4	-23.5
2128.2	-15
2137.98	-8.5
2147.73	-12
2157.45	-13
2167.15	-21.5
2176.81	-22
2186.45	-32
2196.06	-21.5
2205.64	-29
2215.2	-34
2224.72	-35
2234.22	-16.5
2243.69	-24.5
2253.13	-19
2262.55	-33
2271.93	-29.5
2281.29	-31
2290.62	-32.5
2299.93	-25
2309.2	-31
2318.45	-48.5
2327.67	-30.5
2336.86	-25.5
2346.03	-33
2355.17	-39
2364.28	-31.5
2373.36	-42
2382.41	-48
2391.44	-29
2400.44	-37
2409.41	-34
2418.35	-30
2427.27	-37
2436.16	-33
2445.02	-38.5
2453.86	-30.5
2462.66	-43.5
2471.44	-49.5
2480.19	-23
2488.92	-40
2497.62	-33
2506.29	-43
2514.93	-38
2523.55	-27
2532.14	-27.5
2540.7	-17
2549.23	-25.5
2557.74	-33.5
2566.22	-23
2574.67	-37.5
2583.1	-35.5
2591.5	-35
2599.87	-36.5
2608.21	-33
2616.53	-32
2624.82	-24
2633.08	-22
2641.32	-36.5
2649.53	-24.5
2657.71	-26.5
2665.87	-37
2674	-25
2682.1	-28
2690.18	-39
2698.23	-29.1286
2706.25	-26.2756
2714.25	-28.1449
2722.22	-32.7606
2730.16	-24.7328
2738.07	-23.6323
2745.96	-18.7482
2753.83	-27.3255
2761.66	-18.423
2769.81	-19.5
2778.03	-23
2786.22	-6.5
2794.39	-24
2802.54	-28.5
2810.66	-7.5
2818.76	-27
2826.84	-23
2834.9	-17
2842.93	-13
2850.94	-9
2858.92	-6
2866.89	-18.5
2874.83	-1.5
2882.75	-24.5
2890.64	-4.5
2898.51	-12
2906.36	-30
2914.19	-20
2921.99	-9
2929.77	-18
2937.53	-24
2945.26	-17.5
2952.98	-21.5
2960.66	-31
2968.33	-34.5
2975.97	-16.5
2983.59	-30
2991.19	-49
2998.77	-29.5
3006.32	-36
3013.85	-37
3021.35	-28
3028.84	-34.5
3036.3	-37.5
3043.73	-32
3051.15	-24
3058.54	-36.5
3065.91	-43
3073.26	-26.5
3080.58	-37
3087.88	-30
3095.16	-30
3102.42	-40
3109.65	-46
3116.86	-49
3124.05	-22.5
3131.22	-29.5
3138.36	-39
3145.48	-25
3152.58	-47
3159.65	-27
3166.7	-26.5
3173.73	-33.5
3180.74	-38
3187.72	-27
3194.69	-35
3199.89	-40