File: raman_enhancement_factor/Renata_Raman_12_12_2025/Oil_BHT_0_008Au_sub_Aged_50Xlens_785_1200grating_25%_acc3_acq3s_AE50000.txt
100.582	327
115.981	276
131.333	253
146.637	196
161.896	165.5
177.107	114
192.272	94
207.39	114.5
222.462	98
237.486	92
252.465	182
267.398	105
282.283	68.5
297.123	70.5
311.917	64
326.665	54
341.367	37
356.023	44
370.633	41
385.198	25
399.717	39
414.191	32
428.619	27
443.001	23
457.339	14.5
471.631	22
485.877	5
500.079	7
514.236	8
528.348	12.5
542.414	6.5
556.436	6
570.414	4.5
584.347	-12
598.234	-2.5
612.078	-5
625.877	9
639.632	2.5
653.342	0
667.009	-16
680.631	-11.5
694.21	-5.5
707.744	-6
721.234	-1.5
734.681	2.5
748.083	1
761.443	-7
774.758	5
788.03	5.5
801.259	-1
814.444	-9
827.586	18.5
840.685	29
853.74	15.5
866.753	24
879.722	16.5
892.649	7
905.533	-7.5
918.374	10
931.173	12
943.928	5
956.641	3
969.312	13.5
981.94	-9
994.527	0
1007.07	9.5
1019.57	-2
1032.03	-4
1044.45	5
1056.83	6.5
1069.16	-6.5
1081.45	13
1093.7	-6
1105.91	-7
1118.08	-5
1130.2	-10
1142.29	-11.5
1154.33	-23.6853
1166.33	-16.6509
1178.3	-4.85066
1190.22	-7.18536
1202.09	0.71332
1213.93	-3.37619
1225.73	-4.52044
1237.49	1.40675
1249.2	10.6332
1260.79	33.5
1272.85	34
1284.88	22
1296.88	39
1308.84	20.5
1320.77	11
1332.66	-2
1344.51	6.5
1356.33	-14
1368.12	-20
1379.86	-1.5
1391.58	-24
1403.26	-13.5
1414.9	-16.5
1426.51	-3
1438.09	49.5
1449.63	19
1461.13	6
1472.6	-13
1484.03	-25
1495.43	-17.5
1506.8	-26
1518.13	-31
1529.43	-31.5
1540.69	-41
1551.91	-31
1563.11	-29
1574.26	-21
1585.39	-26
1596.48	-20.5
1607.53	-35.5
1618.55	-13
1629.54	-32.5
1640.49	-36
1651.41	11
1662.29	15
1673.14	-17.5
1683.95	-23
1694.74	-35
1705.48	-31
1716.2	-37
1726.88	-23
1737.52	-24
1748.13	-22.5
1758.71	-20
1769.25	-23.5
1779.76	-34
1790.24	-36
1800.68	-26
1811.09	-35
1821.47	-40.5
1831.81	-23
1842.12	-37
1852.4	-31
1862.64	-42
1872.85	-47
1883.02	-16
1893.17	-28
1903.28	-32.5
1913.35	-24.5
1923.4	-31.5
1933.41	-31
1943.38	-29
1953.33	-40
1963.24	-30.5
1973.12	-27
1982.96	-44
1992.78	-31
2002.56	-33.0055
2012.3	-27.3553
2022.02	-31.0182
2031.7	-23.8241
2041.35	-25.0517
2050.97	-33.0266
2060.55	-17.4266
2070.1	-17.7871
2079.62	-2.92964
2088.81	-13
2098.7	-19
2108.56	-25
2118.4	-22.5
2128.2	-21
2137.98	-20
2147.73	-14.5
2157.45	-20.5
2167.15	-20
2176.81	-9
2186.45	-16.5
2196.06	-37.5
2205.64	-22.5
2215.2	-25
2224.72	-35.5
2234.22	-44
2243.69	-24
2253.13	-44
2262.55	-43
2271.93	-21
2281.29	-27
2290.62	-33
2299.93	-38.5
2309.2	-25
2318.45	-37.5
2327.67	-30.5
2336.86	-20.5
2346.03	-31
2355.17	-40
2364.28	-33
2373.36	-47.5
2382.41	-26
2391.44	-37.5
2400.44	-29.5
2409.41	-21
2418.35	-29
2427.27	-38.5
2436.16	-34.5
2445.02	-31
2453.86	-35
2462.66	-31.5
2471.44	-39
2480.19	-44
2488.92	-37
2497.62	-32.5
2506.29	-48
2514.93	-36
2523.55	-41
2532.14	-28
2540.7	-23.5
2549.23	-26
2557.74	-33.5
2566.22	-46
2574.67	-25.5
2583.1	-29.5
2591.5	-29.5
2599.87	-45
2608.21	-21
2616.53	-43
2624.82	-36.5
2633.08	-19
2641.32	-30.5
2649.53	-39
2657.71	-33.5
2665.87	-44
2674	-33
2682.1	-43
2690.18	-20
2698.23	-25.1335
2706.25	-28.693
2714.25	-18.3329
2722.22	-27.7497
2730.16	-30.9718
2738.07	-35.791
2745.96	-30.2626
2753.83	-15.9142
2761.66	-15.2358
2769.81	-10
2778.03	-20.5
2786.22	-19.5
2794.39	-5.5
2802.54	-28
2810.66	-32
2818.76	-12.5
2826.84	-26
2834.9	-30
2842.93	-16.5
2850.94	-9
2858.92	-23.5
2866.89	-23.5
2874.83	1.5
2882.75	-29.5
2890.64	-24.5
2898.51	-17
2906.36	-20
2914.19	-28.5
2921.99	-30
2929.77	-13
2937.53	-23.5
2945.26	-28
2952.98	-20
2960.66	-40
2968.33	-38
2975.97	-26.5
2983.59	-40
2991.19	-48
2998.77	-38
3006.32	-32
3013.85	-35
3021.35	-43
3028.84	-25
3036.3	-16
3043.73	-44
3051.15	-42.5
3058.54	-30
3065.91	-43
3073.26	-40
3080.58	-19
3087.88	-44.5
3095.16	-47
3102.42	-31.5
3109.65	-24
3116.86	-46
3124.05	-54
3131.22	-29.5
3138.36	-39.5
3145.48	-49.5
3152.58	-25.5
3159.65	-28
3166.7	-33.5
3173.73	-30
3180.74	-14
3187.72	-32
3194.69	-35.5
3199.89	-43