File: raman_enhancement_factor/Renata_Raman_12_12_2025/Oil_BHT_0_8_50Xlens_785_1200grating_25%_acc3_acq3s_AE50000_1.txt
100.582	364
115.981	336
131.333	290.5
146.637	255
161.896	208
177.107	167
192.272	111
207.39	126.5
222.462	133
237.486	114.5
252.465	182
267.398	115.5
282.283	105.5
297.123	90
311.917	68.5
326.665	82.5
341.367	70
356.023	56
370.633	69
385.198	51
399.717	39
414.191	42
428.619	30
443.001	43
457.339	28
471.631	41
485.877	31
500.079	11
514.236	29
528.348	27
542.414	25.5
556.436	26
570.414	25.5
584.347	16.5
598.234	17
612.078	25
625.877	17
639.632	-4
653.342	3.5
667.009	-3
680.631	6
694.21	15
707.744	6
721.234	18.5
734.681	6
748.083	9
761.443	13.5
774.758	8.5
788.03	11.5
801.259	11
814.444	5
827.586	19
840.685	46.5
853.74	39.5
866.753	33
879.722	17
892.649	32
905.533	19
918.374	13
931.173	37.5
943.928	22.5
956.641	16
969.312	33
981.94	12
994.527	7
1007.07	8
1019.57	24
1032.03	18.5
1044.45	5
1056.83	24
1069.16	34.5
1081.45	31.5
1093.7	20
1105.91	18
1118.08	21.5
1130.2	-8
1142.29	-4
1154.33	-0.532655
1166.33	-14.9009
1178.3	12.3924
1190.22	8.80787
1202.09	11.6466
1213.93	10.3324
1225.73	22.0452
1237.49	27.1922
1249.2	55.5934
1260.79	50
1272.85	58
1284.88	49.5
1296.88	58
1308.84	49
1320.77	56
1332.66	41
1344.51	35
1356.33	43
1368.12	35.5
1379.86	19
1391.58	30
1403.26	40.5
1414.9	20.5
1426.51	34.5
1438.09	80
1449.63	54
1461.13	39
1472.6	22
1484.03	15
1495.43	-6.5
1506.8	-6
1518.13	1
1529.43	3
1540.69	-24
1551.91	-10
1563.11	-2
1574.26	-23
1585.39	-13.5
1596.48	-0.5
1607.53	-14
1618.55	-22.5
1629.54	-8.5
1640.49	11
1651.41	34.5
1662.29	17.5
1673.14	1.5
1683.95	-10.5
1694.74	-13
1705.48	-16
1716.2	-17
1726.88	-23
1737.52	-21.5
1748.13	6
1758.71	-26
1769.25	-14.5
1779.76	-3.5
1790.24	-33
1800.68	-26.5
1811.09	-26
1821.47	-2.5
1831.81	-27
1842.12	-22.5
1852.4	-16
1862.64	-21.5
1872.85	-21.5
1883.02	-33
1893.17	-23.5
1903.28	-41
1913.35	-18
1923.4	-22
1933.41	-13
1943.38	-35
1953.33	-12
1963.24	-23
1973.12	-33
1982.96	-14
1992.78	-16.5
2002.56	-40.8257
2012.3	-32.0599
2022.02	-26.9977
2031.7	-24.6826
2041.35	-30.9626
2050.97	-21.4296
2060.55	-18.8807
2070.1	-12.1822
2079.62	-14.1947
2088.81	-25
2098.7	-17.5
2108.56	-4
2118.4	-24
2128.2	-22
2137.98	-7
2147.73	-4
2157.45	-14.5
2167.15	-26.5
2176.81	-21
2186.45	-16
2196.06	-35
2205.64	-30.5
2215.2	-34
2224.72	-44.5
2234.22	-37
2243.69	-20.5
2253.13	-35
2262.55	-34.5
2271.93	-24
2281.29	-35
2290.62	-35
2299.93	-19.5
2309.2	-23
2318.45	-22.5
2327.67	-39.5
2336.86	-25.5
2346.03	-17
2355.17	-37
2364.28	-37.5
2373.36	-31
2382.41	-36
2391.44	-42
2400.44	-21.5
2409.41	-25
2418.35	-42
2427.27	-37.5
2436.16	-11.5
2445.02	-29
2453.86	-29.5
2462.66	-21
2471.44	-33
2480.19	-38
2488.92	-32
2497.62	-42
2506.29	-31.5
2514.93	-36
2523.55	-45
2532.14	-36
2540.7	-30
2549.23	-25.5
2557.74	-29
2566.22	-43
2574.67	-34.5
2583.1	-27
2591.5	-22
2599.87	-31
2608.21	-24
2616.53	-31
2624.82	-44
2633.08	-26
2641.32	-34
2649.53	-40.5
2657.71	-35
2665.87	-28
2674	-33
2682.1	-31
2690.18	-23
2698.23	-39.1053
2706.25	-41.2709
2714.25	-23.1449
2722.22	-17.2547
2730.16	-28.7245
2738.07	-26.4489
2745.96	-26.9182
2753.83	-35.4377
2761.66	-34.1248
2769.81	-6
2778.03	-18
2786.22	-32
2794.39	-16
2802.54	-13.5
2810.66	-24
2818.76	-26
2826.84	-8.5
2834.9	-17.5
2842.93	-23
2850.94	-13.5
2858.92	-8.5
2866.89	-35.5
2874.83	-6
2882.75	-21
2890.64	-23
2898.51	-40
2906.36	-8
2914.19	-5
2921.99	-25
2929.77	-24
2937.53	-22
2945.26	-28
2952.98	-32.5
2960.66	-20.5
2968.33	-51
2975.97	-45.5
2983.59	-24.5
2991.19	-27
2998.77	-40.5
3006.32	-26.5
3013.85	-30.5
3021.35	-55
3028.84	-29.5
3036.3	-36
3043.73	-31
3051.15	-35.5
3058.54	-24
3065.91	-36
3073.26	-46
3080.58	-38
3087.88	-30
3095.16	-39
3102.42	-34.5
3109.65	-22.5
3116.86	-26.5
3124.05	-44.5
3131.22	-46
3138.36	-16
3145.48	-31.5
3152.58	-22
3159.65	-18
3166.7	-28
3173.73	-36
3180.74	-42
3187.72	-24.5
3194.69	-37
3199.89	-31