File: raman_enhancement_factor/Renata_Raman_12_12_2025/Oil_BHT_0_5_50Xlens_785_1200grating_25%_acc3_acq3s_AE50000_1.txt
100.582	520
115.981	438
131.333	364.5
146.637	310
161.896	241
177.107	220
192.272	171
207.39	194
222.462	156
237.486	161
252.465	239
267.398	135
282.283	130.5
297.123	113
311.917	84
326.665	105.5
341.367	84.5
356.023	75
370.633	67
385.198	77
399.717	63
414.191	54.5
428.619	45.5
443.001	44
457.339	43.5
471.631	49
485.877	44.5
500.079	39
514.236	25
528.348	32
542.414	17.5
556.436	18
570.414	23.5
584.347	25
598.234	8.5
612.078	16
625.877	15
639.632	12.5
653.342	17.5
667.009	5
680.631	16
694.21	13
707.744	28
721.234	32.5
734.681	10
748.083	11
761.443	20.5
774.758	15
788.03	7.5
801.259	31
814.444	19
827.586	44
840.685	57
853.74	65
866.753	54
879.722	58
892.649	52.5
905.533	44
918.374	45.5
931.173	47
943.928	48
956.641	38.5
969.312	62.5
981.94	20.5
994.527	29.5
1007.07	23.5
1019.57	33
1032.03	13
1044.45	32.5
1056.83	36
1069.16	54
1081.45	50
1093.7	40.5
1105.91	26
1118.08	28.5
1130.2	9
1142.29	8
1154.33	-7.9706
1166.33	7.68107
1178.3	-1.16642
1190.22	8.08838
1202.09	8.83906
1213.93	4.28116
1225.73	18.4386
1237.49	28.839
1249.2	55.8791
1260.79	88
1272.85	59
1284.88	73
1296.88	98
1308.84	56
1320.77	38.5
1332.66	32
1344.51	19.5
1356.33	30.5
1368.12	27
1379.86	5
1391.58	11
1403.26	4
1414.9	30
1426.51	35.5
1438.09	108
1449.63	73
1461.13	38
1472.6	15
1484.03	15
1495.43	4
1506.8	-22
1518.13	0
1529.43	-8.5
1540.69	-16
1551.91	-23
1563.11	-6
1574.26	-7
1585.39	-30.5
1596.48	-16
1607.53	-9.5
1618.55	-19.5
1629.54	-36
1640.49	9.5
1651.41	64
1662.29	26
1673.14	-6.5
1683.95	-18
1694.74	-28.5
1705.48	-26
1716.2	-11
1726.88	-13.5
1737.52	-22
1748.13	-6
1758.71	-23
1769.25	-30.5
1779.76	-39
1790.24	-17
1800.68	-20
1811.09	-39
1821.47	-15
1831.81	-29.5
1842.12	-16
1852.4	-10
1862.64	-29.5
1872.85	-25
1883.02	-31
1893.17	-15.5
1903.28	-35
1913.35	-35.5
1923.4	-26
1933.41	-26.5
1943.38	-51
1953.33	-14.5
1963.24	-17.5
1973.12	-42
1982.96	-23
1992.78	-26.5
2002.56	-25.8404
2012.3	-31.4284
2022.02	-26.3768
2031.7	-27.3836
2041.35	-35.0764
2050.97	-25.0886
2060.55	-16.093
2070.1	-16.45
2079.62	-10.5586
2088.81	-14.5
2098.7	-20
2108.56	-12
2118.4	-18
2128.2	-23.5
2137.98	-18.5
2147.73	-9.5
2157.45	-20
2167.15	-25
2176.81	-22
2186.45	-30
2196.06	-23
2205.64	-25.5
2215.2	-24.5
2224.72	-35.5
2234.22	-34
2243.69	-21.5
2253.13	-33.5
2262.55	-50
2271.93	-33.5
2281.29	-40.5
2290.62	-47
2299.93	-21
2309.2	-27
2318.45	-31.5
2327.67	-56
2336.86	-41
2346.03	-33.5
2355.17	-35
2364.28	-38
2373.36	-46.5
2382.41	-46
2391.44	-42
2400.44	-29
2409.41	-33.5
2418.35	-33
2427.27	-28
2436.16	-31
2445.02	-41
2453.86	-22
2462.66	-35.5
2471.44	-35
2480.19	-43
2488.92	-26.5
2497.62	-43
2506.29	-46
2514.93	-41
2523.55	-25.5
2532.14	-44
2540.7	-40
2549.23	-22.5
2557.74	-28
2566.22	-39
2574.67	-35.5
2583.1	-29
2591.5	-34
2599.87	-31
2608.21	-25.5
2616.53	-28.5
2624.82	-40
2633.08	-26
2641.32	-25
2649.53	-20
2657.71	-30.5
2665.87	-32
2674	-30
2682.1	-20
2690.18	-27
2698.23	-34.9633
2706.25	-31.1881
2714.25	-28.5539
2722.22	-30.3022
2730.16	-20.4856
2738.07	-25.2297
2745.96	-23.7347
2753.83	-16.9432
2761.66	-16.1998
2769.81	-24
2778.03	-15
2786.22	-13
2794.39	-20
2802.54	-21.5
2810.66	-25
2818.76	-16.5
2826.84	-21
2834.9	-21
2842.93	-5
2850.94	1
2858.92	-16
2866.89	-11
2874.83	-8.5
2882.75	-21
2890.64	-15
2898.51	-15.5
2906.36	-36
2914.19	-23
2921.99	-6
2929.77	-17.5
2937.53	-38
2945.26	-23
2952.98	-20.5
2960.66	-53
2968.33	-35.5
2975.97	-27.5
2983.59	-31
2991.19	-25.5
2998.77	-31.5
3006.32	-37.5
3013.85	-34
3021.35	-25.5
3028.84	-45
3036.3	-46.5
3043.73	-30.5
3051.15	-30.5
3058.54	-36
3065.91	-40
3073.26	-33.5
3080.58	-41
3087.88	-29
3095.16	-26.5
3102.42	-21
3109.65	-42
3116.86	-36.5
3124.05	-20
3131.22	-25
3138.36	-37.5
3145.48	-31
3152.58	-37
3159.65	-33
3166.7	-35
3173.73	-27.5
3180.74	-32.5
3187.72	-26
3194.69	-34
3199.89	-43