File: raman_enhancement_factor/Renata_Raman_12_12_2025/Oil_BHT_0_08_50Xlens_785_1200grating_25%_acc3_acq3s_AE50000_1.txt
100.582	458
115.981	393
131.333	331
146.637	293.5
161.896	249
177.107	221
192.272	180.5
207.39	183
222.462	158
237.486	139.5
252.465	225
267.398	154
282.283	138
297.123	103
311.917	110
326.665	111
341.367	92.5
356.023	87.5
370.633	76
385.198	82
399.717	61
414.191	63.5
428.619	51
443.001	60
457.339	74.5
471.631	48
485.877	47.5
500.079	47
514.236	41
528.348	23
542.414	37
556.436	27
570.414	24
584.347	30
598.234	37
612.078	26.5
625.877	24
639.632	13.5
653.342	30
667.009	20
680.631	5
694.21	29.5
707.744	22
721.234	28
734.681	26.5
748.083	26.5
761.443	26.5
774.758	9
788.03	15.5
801.259	20
814.444	19
827.586	41.5
840.685	76.5
853.74	30
866.753	63.5
879.722	45.5
892.649	51
905.533	45
918.374	36.5
931.173	38
943.928	28
956.641	31
969.312	33.5
981.94	20
994.527	11
1007.07	26
1019.57	18.5
1032.03	24.5
1044.45	25
1056.83	20
1069.16	30
1081.45	43.5
1093.7	41.5
1105.91	35
1118.08	19.5
1130.2	12.5
1142.29	13
1154.33	-0.609545
1166.33	-0.227729
1178.3	14.9506
1190.22	1.00231
1202.09	11.0617
1213.93	22.7987
1225.73	16.8004
1237.49	24.0345
1249.2	41.1346
1260.79	59
1272.85	70
1284.88	46
1296.88	65.5
1308.84	53
1320.77	34
1332.66	21
1344.51	21.5
1356.33	25
1368.12	30.5
1379.86	18
1391.58	20
1403.26	9
1414.9	15
1426.51	31
1438.09	95
1449.63	58
1461.13	21
1472.6	4.5
1484.03	2.5
1495.43	-11
1506.8	-10.5
1518.13	-8
1529.43	-18
1540.69	-14
1551.91	-20
1563.11	-13.5
1574.26	-1
1585.39	-15.5
1596.48	-10
1607.53	-21
1618.55	-19.5
1629.54	5
1640.49	-18
1651.41	55
1662.29	28.5
1673.14	-11
1683.95	-20.5
1694.74	-40.5
1705.48	-40
1716.2	-23.5
1726.88	-25
1737.52	-6.5
1748.13	-13
1758.71	-28
1769.25	7
1779.76	-26
1790.24	-29
1800.68	-21.5
1811.09	-32
1821.47	-34
1831.81	-34.5
1842.12	-28.5
1852.4	-22.5
1862.64	-19.5
1872.85	-29.5
1883.02	-31
1893.17	-25.5
1903.28	-30
1913.35	-13.5
1923.4	-25
1933.41	-20
1943.38	-20
1953.33	-25
1963.24	-27.5
1973.12	-27
1982.96	-31
1992.78	-28
2002.56	-32.2017
2012.3	-27.5779
2022.02	-20.6749
2031.7	-22.0344
2041.35	-22.9126
2050.97	-28.427
2060.55	-24.4504
2070.1	-22.8777
2079.62	-11.9321
2088.81	-1.5
2098.7	-17.5
2108.56	-25
2118.4	-15
2128.2	-14
2137.98	-35
2147.73	-9
2157.45	-26
2167.15	-22
2176.81	-21.5
2186.45	-18.5
2196.06	-15
2205.64	-25
2215.2	-28.5
2224.72	-28
2234.22	-25.5
2243.69	-40
2253.13	-29
2262.55	-22.5
2271.93	-39.5
2281.29	-28
2290.62	-18
2299.93	-37
2309.2	-35
2318.45	-22.5
2327.67	-42
2336.86	-47
2346.03	-28.5
2355.17	-30
2364.28	-39.5
2373.36	-32
2382.41	-23
2391.44	-44
2400.44	-38.5
2409.41	-20
2418.35	-38
2427.27	-40
2436.16	-29
2445.02	-26
2453.86	-39
2462.66	-50.5
2471.44	-27.5
2480.19	-29
2488.92	-45
2497.62	-30
2506.29	-26
2514.93	-33.5
2523.55	-34
2532.14	-21.5
2540.7	-46.5
2549.23	-46
2557.74	-29
2566.22	-34
2574.67	-47.5
2583.1	-27
2591.5	-21.5
2599.87	-35
2608.21	-28
2616.53	-36
2624.82	-44
2633.08	-44
2641.32	-37.5
2649.53	-33
2657.71	-52
2665.87	-31
2674	-29
2682.1	-41
2690.18	-23
2698.23	-21.1726
2706.25	-37.1214
2714.25	-32.9319
2722.22	-25.9032
2730.16	-24.6004
2738.07	-26.026
2745.96	-21.3795
2753.83	-14.4221
2761.66	-17.8786
2769.81	-8
2778.03	-10
2786.22	-18
2794.39	-7
2802.54	-19
2810.66	-16.5
2818.76	-7
2826.84	-17.5
2834.9	-19
2842.93	-47
2850.94	0
2858.92	2
2866.89	-15.5
2874.83	-21
2882.75	-16
2890.64	-27
2898.51	-36
2906.36	-12.5
2914.19	-15.5
2921.99	-35
2929.77	-23
2937.53	-12.5
2945.26	-33
2952.98	-47
2960.66	-21.5
2968.33	-25
2975.97	-37
2983.59	-31
2991.19	-24.5
2998.77	-46
3006.32	-36
3013.85	-18
3021.35	-29
3028.84	-33
3036.3	-35
3043.73	-33
3051.15	-46
3058.54	-38.5
3065.91	-41
3073.26	-34.5
3080.58	-36
3087.88	-42.5
3095.16	-37
3102.42	-26
3109.65	-30
3116.86	-42
3124.05	-49
3131.22	-43
3138.36	-37.5
3145.48	-38
3152.58	-32
3159.65	-39
3166.7	-34
3173.73	-38
3180.74	-43.5
3187.72	-28.5
3194.69	-36
3199.89	-31.5