File: raman_enhancement_factor/Renata_Raman_12_12_2025/Oil_BHT_0_8_Aged_50Xlens_785_1200grating_25%_acc3_acq3s_AE50000_1.txt
100.582	377
115.981	309
131.333	255
146.637	212
161.896	184.5
177.107	135
192.272	106
207.39	126
222.462	126.5
237.486	96.5
252.465	164.5
267.398	111
282.283	78
297.123	59
311.917	59
326.665	59.5
341.367	40.5
356.023	53
370.633	51
385.198	37
399.717	15
414.191	30
428.619	32.5
443.001	19
457.339	15
471.631	34
485.877	11
500.079	-8
514.236	25
528.348	17.5
542.414	-7
556.436	7
570.414	12
584.347	-7.5
598.234	3
612.078	5
625.877	8
639.632	-9
653.342	-5
667.009	0.5
680.631	3
694.21	-0.5
707.744	9
721.234	14
734.681	-1
748.083	16.5
761.443	1
774.758	4.5
788.03	2
801.259	8
814.444	3
827.586	28
840.685	44.5
853.74	27.5
866.753	32
879.722	47
892.649	20.5
905.533	-1
918.374	28
931.173	32.5
943.928	4.5
956.641	7
969.312	24
981.94	2
994.527	4
1007.07	-1
1019.57	19
1032.03	0
1044.45	-2
1056.83	20
1069.16	20
1081.45	-3
1093.7	28
1105.91	21
1118.08	-4
1130.2	-2
1142.29	6
1154.33	-4.44214
1166.33	-15.9547
1178.3	-4.5978
1190.22	6.47407
1202.09	1.28963
1213.93	3.20218
1225.73	10.5258
1237.49	12.0204
1249.2	41.3246
1260.79	65
1272.85	54.5
1284.88	28
1296.88	60.5
1308.84	49.5
1320.77	23.5
1332.66	33.5
1344.51	9
1356.33	14
1368.12	20
1379.86	13
1391.58	-1
1403.26	1
1414.9	19
1426.51	30
1438.09	77
1449.63	41.5
1461.13	30
1472.6	2
1484.03	-5.5
1495.43	-5
1506.8	-37
1518.13	-11
1529.43	-10.5
1540.69	-15
1551.91	-17
1563.11	-36.5
1574.26	0
1585.39	-21
1596.48	-24
1607.53	-7.5
1618.55	-23.5
1629.54	-20.5
1640.49	-16.5
1651.41	43
1662.29	9.5
1673.14	-22
1683.95	-10.5
1694.74	-17
1705.48	-31
1716.2	-24.5
1726.88	-14
1737.52	-27
1748.13	-17
1758.71	-11.5
1769.25	-20
1779.76	-31
1790.24	-22
1800.68	-29.5
1811.09	-26
1821.47	-25
1831.81	-19.5
1842.12	-29.5
1852.4	-30.5
1862.64	-19.5
1872.85	-23
1883.02	-34
1893.17	-17
1903.28	-21
1913.35	-32
1923.4	-24
1933.41	-23
1943.38	-40
1953.33	-42.5
1963.24	-21.5
1973.12	-27.5
1982.96	-19
1992.78	-35.5
2002.56	-21.139
2012.3	-29.0798
2022.02	-24.1568
2031.7	-20.3479
2041.35	-27.4716
2050.97	-24.0987
2060.55	-22.2561
2070.1	-11.5818
2079.62	-10.2404
2088.81	-23
2098.7	-13
2108.56	-12
2118.4	-24
2128.2	-22
2137.98	-15
2147.73	-9.5
2157.45	-12
2167.15	-31
2176.81	-12
2186.45	-24.5
2196.06	-20
2205.64	-34
2215.2	-23
2224.72	-27
2234.22	-25
2243.69	-36
2253.13	-33.5
2262.55	-33
2271.93	-35
2281.29	-36.5
2290.62	-20
2299.93	-34
2309.2	-36.5
2318.45	-26
2327.67	-24
2336.86	-26
2346.03	-30
2355.17	-28
2364.28	-37.5
2373.36	-35.5
2382.41	-38
2391.44	-34
2400.44	-39
2409.41	-34
2418.35	-34
2427.27	-36
2436.16	-53
2445.02	-40
2453.86	-47
2462.66	-26
2471.44	-37.5
2480.19	-33
2488.92	-37
2497.62	-24
2506.29	-34
2514.93	-48
2523.55	-45.5
2532.14	-32
2540.7	-29
2549.23	-32.5
2557.74	-33.5
2566.22	-51
2574.67	-24.5
2583.1	-37
2591.5	-34
2599.87	-50
2608.21	-46
2616.53	-34
2624.82	-39
2633.08	-30.5
2641.32	-26
2649.53	-46
2657.71	-35.5
2665.87	-34
2674	-22
2682.1	-27
2690.18	-45
2698.23	-27.7819
2706.25	-30.5796
2714.25	-25.2904
2722.22	-26.8168
2730.16	-35.7502
2738.07	-28.3892
2745.96	-32.6807
2753.83	-23.6068
2761.66	-4.98619
2769.81	-8
2778.03	-24
2786.22	-15
2794.39	-5.5
2802.54	-36
2810.66	-25
2818.76	-15
2826.84	-20
2834.9	-23.5
2842.93	-13
2850.94	5
2858.92	-19
2866.89	-18.5
2874.83	-13
2882.75	-15
2890.64	-32
2898.51	-18
2906.36	-15
2914.19	-42.5
2921.99	-45
2929.77	-32
2937.53	-20
2945.26	-32.5
2952.98	-34
2960.66	-31
2968.33	-50.5
2975.97	-34.5
2983.59	-32
2991.19	-29.5
2998.77	-48
3006.32	-34.5
3013.85	-22
3021.35	-39
3028.84	-41.5
3036.3	-38
3043.73	-40.5
3051.15	-32
3058.54	-19.5
3065.91	-36
3073.26	-35.5
3080.58	-31.5
3087.88	-38.5
3095.16	-35.5
3102.42	-37.5
3109.65	-29.5
3116.86	-42.5
3124.05	-29
3131.22	-26
3138.36	-40
3145.48	-46
3152.58	-23.5
3159.65	-41
3166.7	-44
3173.73	-37
3180.74	-30
3187.72	-49.5
3194.69	-45.5
3199.89	-34